PE IR       SUBTECH     SPECTRUM    ASCII       PEDS        4.00        
   -1
18c6 ether.ASC
22/05/18
12:12:38.00
22/05/18
12:12:38.00
Administrator
Sample 168 By Administrator Date Wednesday, May 18 2022
400.000000
#HDR
-1
-1
#GR
cm-1
%T
1.0
0.0
4000.000000
-1.000000
3601
8
96.984834
46.930105
#DATA
4000.000000	96.192440
3999.000000	96.197706
3998.000000	96.206293
3997.000000	96.216471
3996.000000	96.225411
3995.000000	96.197727
3994.000000	96.200106
3993.000000	96.201008
3992.000000	96.200675
3991.000000	96.199609
3990.000000	96.198496
3989.000000	96.197422
3988.000000	96.195905
3987.000000	96.193395
3986.000000	96.189845
3985.000000	96.185899
3984.000000	96.182760
3983.000000	96.181855
3982.000000	96.184064
3981.000000	96.188938
3980.000000	96.194952
3979.000000	96.200544
3978.000000	96.204854
3977.000000	96.207603
3976.000000	96.208471
3975.000000	96.207270
3974.000000	96.204642
3973.000000	96.202245
3972.000000	96.201881
3971.000000	96.203938
3970.000000	96.207365
3969.000000	96.210812
3968.000000	96.213616
3967.000000	96.216016
3966.000000	96.218624
3965.000000	96.221843
3964.000000	96.225853
3963.000000	96.230568
3962.000000	96.235031
3961.000000	96.237719
3960.000000	96.237555
3959.000000	96.234514
3958.000000	96.229838
3957.000000	96.224956
3956.000000	96.220185
3955.000000	96.214994
3954.000000	96.209253
3953.000000	96.204507
3952.000000	96.203324
3951.000000	96.207206
3950.000000	96.215265
3949.000000	96.224083
3948.000000	96.229691
3947.000000	96.230303
3946.000000	96.226964
3945.000000	96.222533
3944.000000	96.219882
3943.000000	96.220425
3942.000000	96.223098
3941.000000	96.225657
3940.000000	96.226725
3939.000000	96.226184
3938.000000	96.225474
3937.000000	96.226615
3936.000000	96.230584
3935.000000	96.236904
3934.000000	96.243224
3933.000000	96.246975
3932.000000	96.246744
3931.000000	96.243565
3930.000000	96.240339
3929.000000	96.238106
3928.000000	96.236717
3927.000000	96.236645
3926.000000	96.239144
3925.000000	96.245107
3924.000000	96.253417
3923.000000	96.261679
3922.000000	96.269048
3921.000000	96.276167
3920.000000	96.283605
3919.000000	96.290369
3918.000000	96.293940
3917.000000	96.293414
3916.000000	96.290888
3915.000000	96.289227
3914.000000	96.289241
3913.000000	96.289812
3912.000000	96.290003
3911.000000	96.289222
3910.000000	96.287612
3909.000000	96.285353
3908.000000	96.282344
3907.000000	96.280257
3906.000000	96.283071
3905.000000	96.294030
3904.000000	96.310734
3903.000000	96.325060
3902.000000	96.330737
3901.000000	96.328392
3900.000000	96.322652
3899.000000	96.318454
3898.000000	96.317327
3897.000000	96.317211
3896.000000	96.316003
3895.000000	96.312369
3894.000000	96.307158
3893.000000	96.303801
3892.000000	96.305304
3891.000000	96.311143
3890.000000	96.318973
3889.000000	96.326166
3888.000000	96.331069
3887.000000	96.333029
3886.000000	96.332728
3885.000000	96.330454
3884.000000	96.326985
3883.000000	96.323249
3882.000000	96.321267
3881.000000	96.323053
3880.000000	96.326893
3879.000000	96.328956
3878.000000	96.327079
3877.000000	96.320866
3876.000000	96.312862
3875.000000	96.308638
3874.000000	96.311834
3873.000000	96.321425
3872.000000	96.332835
3871.000000	96.341030
3870.000000	96.343015
3869.000000	96.339232
3868.000000	96.333146
3867.000000	96.328243
3866.000000	96.326299
3865.000000	96.329223
3864.000000	96.337434
3863.000000	96.347611
3862.000000	96.356490
3861.000000	96.361722
3860.000000	96.362488
3859.000000	96.358529
3858.000000	96.349386
3857.000000	96.334706
3856.000000	96.317870
3855.000000	96.309618
3854.000000	96.320773
3853.000000	96.337924
3852.000000	96.347099
3851.000000	96.351243
3850.000000	96.354819
3849.000000	96.356485
3848.000000	96.354833
3847.000000	96.350351
3846.000000	96.345337
3845.000000	96.342454
3844.000000	96.342682
3843.000000	96.344709
3842.000000	96.346851
3841.000000	96.347604
3840.000000	96.346918
3839.000000	96.346350
3838.000000	96.345283
3837.000000	96.342796
3836.000000	96.339668
3835.000000	96.337932
3834.000000	96.339002
3833.000000	96.342199
3832.000000	96.346168
3831.000000	96.349927
3830.000000	96.352506
3829.000000	96.352959
3828.000000	96.351939
3827.000000	96.351280
3826.000000	96.352323
3825.000000	96.354620
3824.000000	96.355823
3823.000000	96.354729
3822.000000	96.354457
3821.000000	96.356283
3820.000000	96.358798
3819.000000	96.360732
3818.000000	96.362560
3817.000000	96.364866
3816.000000	96.366967
3815.000000	96.367511
3814.000000	96.366420
3813.000000	96.364987
3812.000000	96.364101
3811.000000	96.364340
3810.000000	96.365779
3809.000000	96.368433
3808.000000	96.372092
3807.000000	96.375522
3806.000000	96.377937
3805.000000	96.379538
3804.000000	96.379573
3803.000000	96.377220
3802.000000	96.372804
3801.000000	96.367962
3800.000000	96.365248
3799.000000	96.365780
3798.000000	96.367943
3797.000000	96.368913
3796.000000	96.366648
3795.000000	96.361494
3794.000000	96.356046
3793.000000	96.352582
3792.000000	96.351724
3791.000000	96.352375
3790.000000	96.353392
3789.000000	96.354033
3788.000000	96.354187
3787.000000	96.354356
3786.000000	96.355281
3785.000000	96.357182
3784.000000	96.359573
3783.000000	96.361304
3782.000000	96.361029
3781.000000	96.358666
3780.000000	96.355602
3779.000000	96.353010
3778.000000	96.350846
3777.000000	96.349411
3776.000000	96.349112
3775.000000	96.350627
3774.000000	96.354282
3773.000000	96.359759
3772.000000	96.366082
3771.000000	96.371078
3770.000000	96.372786
3769.000000	96.370688
3768.000000	96.366573
3767.000000	96.363341
3766.000000	96.362581
3765.000000	96.364090
3764.000000	96.366885
3763.000000	96.369849
3762.000000	96.372454
3761.000000	96.375574
3760.000000	96.381147
3759.000000	96.389058
3758.000000	96.397041
3757.000000	96.403672
3756.000000	96.408737
3755.000000	96.413525
3754.000000	96.421269
3753.000000	96.435175
3752.000000	96.453832
3751.000000	96.467486
3750.000000	96.467247
3749.000000	96.457295
3748.000000	96.445134
3747.000000	96.432466
3746.000000	96.417788
3745.000000	96.403517
3744.000000	96.394148
3743.000000	96.395302
3742.000000	96.407962
3741.000000	96.425934
3740.000000	96.442060
3739.000000	96.452001
3738.000000	96.455757
3737.000000	96.456911
3736.000000	96.457985
3735.000000	96.458976
3734.000000	96.458135
3733.000000	96.451378
3732.000000	96.437050
3731.000000	96.419773
3730.000000	96.405760
3729.000000	96.398777
3728.000000	96.398058
3727.000000	96.400079
3726.000000	96.401336
3725.000000	96.400338
3724.000000	96.397100
3723.000000	96.393324
3722.000000	96.391445
3721.000000	96.392200
3720.000000	96.395109
3719.000000	96.399563
3718.000000	96.404414
3717.000000	96.408861
3716.000000	96.411941
3715.000000	96.412872
3714.000000	96.410785
3713.000000	96.405268
3712.000000	96.398647
3711.000000	96.393097
3710.000000	96.390314
3709.000000	96.390721
3708.000000	96.392239
3707.000000	96.393213
3706.000000	96.392732
3705.000000	96.390807
3704.000000	96.387916
3703.000000	96.383839
3702.000000	96.377795
3701.000000	96.368824
3700.000000	96.358048
3699.000000	96.348118
3698.000000	96.340048
3697.000000	96.333637
3696.000000	96.328732
3695.000000	96.325041
3694.000000	96.321934
3693.000000	96.318774
3692.000000	96.317645
3691.000000	96.322636
3690.000000	96.334032
3689.000000	96.342614
3688.000000	96.341060
3687.000000	96.333581
3686.000000	96.327621
3685.000000	96.325997
3684.000000	96.328275
3683.000000	96.332658
3682.000000	96.336528
3681.000000	96.337865
3680.000000	96.335282
3679.000000	96.328438
3678.000000	96.318282
3677.000000	96.307005
3676.000000	96.298189
3675.000000	96.292802
3674.000000	96.293244
3673.000000	96.298838
3672.000000	96.306027
3671.000000	96.310856
3670.000000	96.311362
3669.000000	96.306974
3668.000000	96.300734
3667.000000	96.296795
3666.000000	96.297107
3665.000000	96.300580
3664.000000	96.304879
3663.000000	96.307673
3662.000000	96.308132
3661.000000	96.307721
3660.000000	96.308115
3659.000000	96.311324
3658.000000	96.318794
3657.000000	96.329765
3656.000000	96.340240
3655.000000	96.347251
3654.000000	96.352695
3653.000000	96.359220
3652.000000	96.368510
3651.000000	96.380590
3650.000000	96.390813
3649.000000	96.390207
3648.000000	96.378578
3647.000000	96.366612
3646.000000	96.362879
3645.000000	96.367453
3644.000000	96.375545
3643.000000	96.383193
3642.000000	96.389494
3641.000000	96.395258
3640.000000	96.399679
3639.000000	96.401227
3638.000000	96.400379
3637.000000	96.400050
3636.000000	96.402951
3635.000000	96.409000
3634.000000	96.416479
3633.000000	96.423751
3632.000000	96.429998
3631.000000	96.435586
3630.000000	96.441414
3629.000000	96.444212
3628.000000	96.440123
3627.000000	96.432475
3626.000000	96.426369
3625.000000	96.422894
3624.000000	96.421217
3623.000000	96.420846
3622.000000	96.422144
3621.000000	96.425298
3620.000000	96.429929
3619.000000	96.433745
3618.000000	96.434451
3617.000000	96.433004
3616.000000	96.431755
3615.000000	96.431522
3614.000000	96.432251
3613.000000	96.433309
3612.000000	96.433328
3611.000000	96.431475
3610.000000	96.427438
3609.000000	96.422059
3608.000000	96.418051
3607.000000	96.416840
3606.000000	96.417211
3605.000000	96.416889
3604.000000	96.414791
3603.000000	96.412487
3602.000000	96.411641
3601.000000	96.411205
3600.000000	96.409196
3599.000000	96.405948
3598.000000	96.403106
3597.000000	96.402398
3596.000000	96.403471
3595.000000	96.404697
3594.000000	96.405149
3593.000000	96.404781
3592.000000	96.403631
3591.000000	96.401811
3590.000000	96.399650
3589.000000	96.397504
3588.000000	96.394913
3587.000000	96.391068
3586.000000	96.387023
3585.000000	96.384091
3584.000000	96.382303
3583.000000	96.381281
3582.000000	96.380551
3581.000000	96.379306
3580.000000	96.376461
3579.000000	96.371860
3578.000000	96.366967
3577.000000	96.363744
3576.000000	96.363301
3575.000000	96.364843
3574.000000	96.367152
3573.000000	96.369726
3572.000000	96.372633
3571.000000	96.376360
3570.000000	96.381810
3569.000000	96.388732
3568.000000	96.393639
3567.000000	96.391163
3566.000000	96.381187
3565.000000	96.369453
3564.000000	96.360667
3563.000000	96.355311
3562.000000	96.352467
3561.000000	96.351137
3560.000000	96.350295
3559.000000	96.349003
3558.000000	96.347025
3557.000000	96.344967
3556.000000	96.343722
3555.000000	96.343610
3554.000000	96.344580
3553.000000	96.346659
3552.000000	96.349636
3551.000000	96.352779
3550.000000	96.355870
3549.000000	96.358878
3548.000000	96.361604
3547.000000	96.362836
3546.000000	96.361550
3545.000000	96.358330
3544.000000	96.354926
3543.000000	96.351768
3542.000000	96.348164
3541.000000	96.343792
3540.000000	96.339416
3539.000000	96.336369
3538.000000	96.334993
3537.000000	96.334588
3536.000000	96.333681
3535.000000	96.331716
3534.000000	96.329508
3533.000000	96.328496
3532.000000	96.329305
3531.000000	96.331249
3530.000000	96.333581
3529.000000	96.336337
3528.000000	96.339973
3527.000000	96.344372
3526.000000	96.348611
3525.000000	96.351322
3524.000000	96.351542
3523.000000	96.349302
3522.000000	96.345723
3521.000000	96.342065
3520.000000	96.338935
3519.000000	96.336871
3518.000000	96.336388
3517.000000	96.337428
3516.000000	96.338788
3515.000000	96.338931
3514.000000	96.337537
3513.000000	96.335977
3512.000000	96.336049
3511.000000	96.338526
3510.000000	96.342603
3509.000000	96.346677
3508.000000	96.349634
3507.000000	96.351588
3506.000000	96.353470
3505.000000	96.356153
3504.000000	96.359608
3503.000000	96.362859
3502.000000	96.365217
3501.000000	96.366689
3500.000000	96.367385
3499.000000	96.367254
3498.000000	96.366186
3497.000000	96.364240
3496.000000	96.361935
3495.000000	96.360596
3494.000000	96.361667
3493.000000	96.365336
3492.000000	96.370114
3491.000000	96.374252
3490.000000	96.377397
3489.000000	96.380129
3488.000000	96.382583
3487.000000	96.384140
3486.000000	96.384237
3485.000000	96.383059
3484.000000	96.381285
3483.000000	96.379856
3482.000000	96.379637
3481.000000	96.380917
3480.000000	96.383321
3479.000000	96.386350
3478.000000	96.389960
3477.000000	96.394250
3476.000000	96.399135
3475.000000	96.404497
3474.000000	96.410262
3473.000000	96.415990
3472.000000	96.420402
3471.000000	96.422043
3470.000000	96.420742
3469.000000	96.418084
3468.000000	96.416522
3467.000000	96.417933
3466.000000	96.422560
3465.000000	96.429050
3464.000000	96.435551
3463.000000	96.441123
3462.000000	96.445929
3461.000000	96.450198
3460.000000	96.453484
3459.000000	96.455343
3458.000000	96.456282
3457.000000	96.457622
3456.000000	96.459799
3455.000000	96.461809
3454.000000	96.462200
3453.000000	96.460696
3452.000000	96.458565
3451.000000	96.457488
3450.000000	96.458572
3449.000000	96.461901
3448.000000	96.466370
3447.000000	96.469827
3446.000000	96.470323
3445.000000	96.467643
3444.000000	96.463343
3443.000000	96.459645
3442.000000	96.458186
3441.000000	96.459431
3440.000000	96.462664
3439.000000	96.466194
3438.000000	96.467987
3437.000000	96.466852
3436.000000	96.463119
3435.000000	96.458717
3434.000000	96.455996
3433.000000	96.456219
3432.000000	96.458919
3431.000000	96.462653
3430.000000	96.466498
3429.000000	96.470177
3428.000000	96.473065
3427.000000	96.474079
3426.000000	96.473068
3425.000000	96.471459
3424.000000	96.470818
3423.000000	96.471308
3422.000000	96.472124
3421.000000	96.473071
3420.000000	96.474776
3419.000000	96.477598
3418.000000	96.481091
3417.000000	96.484393
3416.000000	96.486858
3415.000000	96.488398
3414.000000	96.489559
3413.000000	96.491017
3412.000000	96.492826
3411.000000	96.494420
3410.000000	96.495520
3409.000000	96.496414
3408.000000	96.497218
3407.000000	96.497500
3406.000000	96.496936
3405.000000	96.495831
3404.000000	96.494485
3403.000000	96.492863
3402.000000	96.491238
3401.000000	96.490670
3400.000000	96.492217
3399.000000	96.495836
3398.000000	96.500297
3397.000000	96.503856
3396.000000	96.505191
3395.000000	96.504434
3394.000000	96.503576
3393.000000	96.505148
3392.000000	96.509847
3391.000000	96.515781
3390.000000	96.520321
3389.000000	96.522416
3388.000000	96.522944
3387.000000	96.523411
3386.000000	96.524600
3385.000000	96.526346
3384.000000	96.528084
3383.000000	96.529626
3382.000000	96.531343
3381.000000	96.533655
3380.000000	96.536462
3379.000000	96.539106
3378.000000	96.540831
3377.000000	96.541063
3376.000000	96.539591
3375.000000	96.536754
3374.000000	96.533345
3373.000000	96.530144
3372.000000	96.527717
3371.000000	96.526553
3370.000000	96.526807
3369.000000	96.527761
3368.000000	96.528345
3367.000000	96.528764
3366.000000	96.530842
3365.000000	96.535836
3364.000000	96.542368
3363.000000	96.547593
3362.000000	96.550281
3361.000000	96.551663
3360.000000	96.553308
3359.000000	96.555251
3358.000000	96.556536
3357.000000	96.556599
3356.000000	96.555567
3355.000000	96.553824
3354.000000	96.551952
3353.000000	96.550680
3352.000000	96.550532
3351.000000	96.551665
3350.000000	96.554143
3349.000000	96.557798
3348.000000	96.561561
3347.000000	96.563829
3346.000000	96.563915
3345.000000	96.562836
3344.000000	96.562177
3343.000000	96.562490
3342.000000	96.563205
3341.000000	96.563672
3340.000000	96.563803
3339.000000	96.563816
3338.000000	96.563770
3337.000000	96.563359
3336.000000	96.561987
3335.000000	96.559357
3334.000000	96.556287
3333.000000	96.554506
3332.000000	96.555126
3331.000000	96.557404
3330.000000	96.559518
3329.000000	96.560499
3328.000000	96.560892
3327.000000	96.561660
3326.000000	96.562889
3325.000000	96.563866
3324.000000	96.564032
3323.000000	96.563427
3322.000000	96.562253
3321.000000	96.560353
3320.000000	96.557458
3319.000000	96.553954
3318.000000	96.550880
3317.000000	96.548872
3316.000000	96.547411
3315.000000	96.545563
3314.000000	96.543391
3313.000000	96.542046
3312.000000	96.542197
3311.000000	96.542823
3310.000000	96.541941
3309.000000	96.538432
3308.000000	96.533051
3307.000000	96.527842
3306.000000	96.524615
3305.000000	96.523748
3304.000000	96.524197
3303.000000	96.524763
3302.000000	96.525354
3301.000000	96.526908
3300.000000	96.529923
3299.000000	96.533383
3298.000000	96.535364
3297.000000	96.534621
3296.000000	96.531501
3295.000000	96.527488
3294.000000	96.524167
3293.000000	96.522428
3292.000000	96.522251
3291.000000	96.522997
3290.000000	96.523857
3289.000000	96.524301
3288.000000	96.524375
3287.000000	96.524640
3286.000000	96.525637
3285.000000	96.527194
3284.000000	96.528595
3283.000000	96.529574
3282.000000	96.530875
3281.000000	96.533395
3280.000000	96.536881
3279.000000	96.539973
3278.000000	96.541374
3277.000000	96.540591
3276.000000	96.537901
3275.000000	96.534321
3274.000000	96.531676
3273.000000	96.531777
3272.000000	96.534821
3271.000000	96.538908
3270.000000	96.541496
3269.000000	96.541341
3268.000000	96.539105
3267.000000	96.536423
3266.000000	96.534709
3265.000000	96.534480
3264.000000	96.535505
3263.000000	96.537224
3262.000000	96.539133
3261.000000	96.540884
3260.000000	96.542313
3259.000000	96.543575
3258.000000	96.544973
3257.000000	96.546593
3256.000000	96.548293
3255.000000	96.550172
3254.000000	96.552509
3253.000000	96.555054
3252.000000	96.556623
3251.000000	96.555955
3250.000000	96.552962
3249.000000	96.548883
3248.000000	96.545532
3247.000000	96.544621
3246.000000	96.547254
3245.000000	96.553278
3244.000000	96.561124
3243.000000	96.568736
3242.000000	96.574869
3241.000000	96.579444
3240.000000	96.582908
3239.000000	96.585498
3238.000000	96.586912
3237.000000	96.586516
3236.000000	96.584210
3235.000000	96.581451
3234.000000	96.580694
3233.000000	96.583176
3232.000000	96.587516
3231.000000	96.591037
3230.000000	96.592513
3229.000000	96.592897
3228.000000	96.593637
3227.000000	96.595228
3226.000000	96.597412
3225.000000	96.599921
3224.000000	96.602467
3223.000000	96.604383
3222.000000	96.604910
3221.000000	96.603868
3220.000000	96.602035
3219.000000	96.600793
3218.000000	96.601315
3217.000000	96.603741
3216.000000	96.607120
3215.000000	96.610313
3214.000000	96.613007
3213.000000	96.615824
3212.000000	96.619374
3211.000000	96.623242
3210.000000	96.625935
3209.000000	96.625878
3208.000000	96.622698
3207.000000	96.617783
3206.000000	96.613626
3205.000000	96.612306
3204.000000	96.614430
3203.000000	96.619064
3202.000000	96.624504
3201.000000	96.629123
3200.000000	96.631978
3199.000000	96.632981
3198.000000	96.632476
3197.000000	96.630621
3196.000000	96.627375
3195.000000	96.623263
3194.000000	96.619616
3193.000000	96.617680
3192.000000	96.617492
3191.000000	96.617843
3190.000000	96.617283
3189.000000	96.614850
3188.000000	96.610388
3187.000000	96.604704
3186.000000	96.599718
3185.000000	96.597703
3184.000000	96.599616
3183.000000	96.604001
3182.000000	96.607814
3181.000000	96.608807
3180.000000	96.607249
3179.000000	96.605305
3178.000000	96.604831
3177.000000	96.606005
3176.000000	96.607908
3175.000000	96.609850
3174.000000	96.611546
3173.000000	96.612420
3172.000000	96.611560
3171.000000	96.608601
3170.000000	96.604348
3169.000000	96.600258
3168.000000	96.597668
3167.000000	96.597327
3166.000000	96.599175
3165.000000	96.602136
3164.000000	96.604501
3163.000000	96.605067
3162.000000	96.603962
3161.000000	96.602357
3160.000000	96.601405
3159.000000	96.601462
3158.000000	96.601951
3157.000000	96.601737
3156.000000	96.599922
3155.000000	96.596834
3154.000000	96.594182
3153.000000	96.593743
3152.000000	96.595729
3151.000000	96.598769
3150.000000	96.601557
3149.000000	96.603961
3148.000000	96.606170
3147.000000	96.607328
3146.000000	96.605778
3145.000000	96.600820
3144.000000	96.593729
3143.000000	96.586834
3142.000000	96.581742
3141.000000	96.578749
3140.000000	96.577644
3139.000000	96.578446
3138.000000	96.581011
3137.000000	96.584355
3136.000000	96.587053
3135.000000	96.588402
3134.000000	96.588729
3133.000000	96.588640
3132.000000	96.588463
3131.000000	96.588522
3130.000000	96.589361
3129.000000	96.591285
3128.000000	96.593878
3127.000000	96.596239
3126.000000	96.597751
3125.000000	96.598361
3124.000000	96.598218
3123.000000	96.597470
3122.000000	96.596561
3121.000000	96.596431
3120.000000	96.597867
3119.000000	96.600710
3118.000000	96.603962
3117.000000	96.606756
3116.000000	96.609006
3115.000000	96.611022
3114.000000	96.612666
3113.000000	96.613255
3112.000000	96.612211
3111.000000	96.609779
3110.000000	96.607171
3109.000000	96.606021
3108.000000	96.607258
3107.000000	96.610174
3106.000000	96.612993
