PE IR       SUBTECH     SPECTRUM    ASCII       PEDS        4.00        
   -1
K2-ponavljanjekesperimenta-izvaðeno iz GB-mono.ASC
22/06/28
09:36:41.00
22/06/28
09:36:41.00
Administrator
Sample 094 By Administrator Date Tuesday, June 28 2022
400.000000
#HDR
-1
-1
#GR
cm-1
%T
1.0
0.0
4000.000000
-1.000000
3601
8
99.106924
47.371667
#DATA
4000.000000	98.389046
3999.000000	98.389122
3998.000000	98.388770
3997.000000	98.388838
3996.000000	98.389978
3995.000000	98.391864
3994.000000	98.394088
3993.000000	98.396552
3992.000000	98.399587
3991.000000	98.403419
3990.000000	98.407723
3989.000000	98.411904
3988.000000	98.415763
3987.000000	98.419612
3986.000000	98.423672
3985.000000	98.427549
3984.000000	98.430596
3983.000000	98.432720
3982.000000	98.434548
3981.000000	98.436512
3980.000000	98.437782
3979.000000	98.436690
3978.000000	98.432564
3977.000000	98.427068
3976.000000	98.423446
3975.000000	98.423912
3974.000000	98.427964
3973.000000	98.433124
3972.000000	98.437009
3971.000000	98.438914
3970.000000	98.439562
3969.000000	98.440022
3968.000000	98.441073
3967.000000	98.442953
3966.000000	98.445335
3965.000000	98.447544
3964.000000	98.448956
3963.000000	98.449460
3962.000000	98.449716
3961.000000	98.450615
3960.000000	98.452561
3959.000000	98.455396
3958.000000	98.458538
3957.000000	98.461265
3956.000000	98.463235
3955.000000	98.464582
3954.000000	98.465545
3953.000000	98.465824
3952.000000	98.464591
3951.000000	98.461568
3950.000000	98.457729
3949.000000	98.454889
3948.000000	98.454452
3947.000000	98.456700
3946.000000	98.461354
3945.000000	98.467958
3944.000000	98.475503
3943.000000	98.481878
3942.000000	98.485144
3941.000000	98.485706
3940.000000	98.485997
3939.000000	98.488002
3938.000000	98.491315
3937.000000	98.493727
3936.000000	98.493631
3935.000000	98.491555
3934.000000	98.490336
3933.000000	98.493148
3932.000000	98.500774
3931.000000	98.510273
3930.000000	98.517064
3929.000000	98.519424
3928.000000	98.519362
3927.000000	98.520345
3926.000000	98.524331
3925.000000	98.529695
3924.000000	98.532573
3923.000000	98.530914
3922.000000	98.525996
3921.000000	98.520730
3920.000000	98.517447
3919.000000	98.517273
3918.000000	98.520677
3917.000000	98.526782
3916.000000	98.533218
3915.000000	98.538045
3914.000000	98.541380
3913.000000	98.544404
3912.000000	98.547379
3911.000000	98.549399
3910.000000	98.549404
3909.000000	98.547145
3908.000000	98.542947
3907.000000	98.536727
3906.000000	98.528061
3905.000000	98.517450
3904.000000	98.507332
3903.000000	98.501924
3902.000000	98.504776
3901.000000	98.515662
3900.000000	98.530181
3899.000000	98.541918
3898.000000	98.547303
3897.000000	98.547397
3896.000000	98.544839
3895.000000	98.542235
3894.000000	98.541830
3893.000000	98.544342
3892.000000	98.547392
3891.000000	98.546936
3890.000000	98.541875
3889.000000	98.534392
3888.000000	98.526900
3887.000000	98.522049
3886.000000	98.520975
3885.000000	98.522421
3884.000000	98.525134
3883.000000	98.530296
3882.000000	98.539187
3881.000000	98.548546
3880.000000	98.551941
3879.000000	98.548536
3878.000000	98.544025
3877.000000	98.543372
3876.000000	98.547693
3875.000000	98.553576
3874.000000	98.555279
3873.000000	98.550140
3872.000000	98.541536
3871.000000	98.535008
3870.000000	98.531182
3869.000000	98.525912
3868.000000	98.518344
3867.000000	98.512060
3866.000000	98.511851
3865.000000	98.519445
3864.000000	98.530461
3863.000000	98.538530
3862.000000	98.541401
3861.000000	98.541287
3860.000000	98.540968
3859.000000	98.541705
3858.000000	98.542698
3857.000000	98.541984
3856.000000	98.537672
3855.000000	98.532748
3854.000000	98.530182
3853.000000	98.529264
3852.000000	98.528218
3851.000000	98.527790
3850.000000	98.527710
3849.000000	98.528517
3848.000000	98.529989
3847.000000	98.532176
3846.000000	98.535150
3845.000000	98.538553
3844.000000	98.541372
3843.000000	98.543216
3842.000000	98.544629
3841.000000	98.546274
3840.000000	98.547858
3839.000000	98.547714
3838.000000	98.545251
3837.000000	98.541915
3836.000000	98.539839
3835.000000	98.539550
3834.000000	98.539745
3833.000000	98.538986
3832.000000	98.536997
3831.000000	98.534913
3830.000000	98.534780
3829.000000	98.538254
3828.000000	98.544776
3827.000000	98.550741
3826.000000	98.551472
3825.000000	98.545131
3824.000000	98.534716
3823.000000	98.527537
3822.000000	98.529005
3821.000000	98.535805
3820.000000	98.541551
3819.000000	98.546915
3818.000000	98.554403
3817.000000	98.564241
3816.000000	98.572964
3815.000000	98.576546
3814.000000	98.575438
3813.000000	98.572339
3812.000000	98.568959
3811.000000	98.565852
3810.000000	98.563279
3809.000000	98.561668
3808.000000	98.560688
3807.000000	98.558484
3806.000000	98.554343
3805.000000	98.550646
3804.000000	98.550516
3803.000000	98.555778
3802.000000	98.564286
3801.000000	98.569834
3800.000000	98.571165
3799.000000	98.573643
3798.000000	98.579721
3797.000000	98.585824
3796.000000	98.586499
3795.000000	98.581575
3794.000000	98.575999
3793.000000	98.573866
3792.000000	98.575317
3791.000000	98.577765
3790.000000	98.578680
3789.000000	98.578134
3788.000000	98.578483
3787.000000	98.581559
3786.000000	98.586352
3785.000000	98.589423
3784.000000	98.588161
3783.000000	98.583354
3782.000000	98.578206
3781.000000	98.575503
3780.000000	98.575772
3779.000000	98.577433
3778.000000	98.579118
3777.000000	98.580111
3776.000000	98.579486
3775.000000	98.576163
3774.000000	98.570369
3773.000000	98.564209
3772.000000	98.561254
3771.000000	98.564517
3770.000000	98.572743
3769.000000	98.580868
3768.000000	98.584918
3767.000000	98.583891
3766.000000	98.579029
3765.000000	98.572940
3764.000000	98.567897
3763.000000	98.564856
3762.000000	98.563978
3761.000000	98.565192
3760.000000	98.567533
3759.000000	98.569370
3758.000000	98.570007
3757.000000	98.570042
3756.000000	98.569933
3755.000000	98.568887
3754.000000	98.565159
3753.000000	98.557411
3752.000000	98.546384
3751.000000	98.534912
3750.000000	98.526386
3749.000000	98.523838
3748.000000	98.528352
3747.000000	98.537872
3746.000000	98.549133
3745.000000	98.556331
3744.000000	98.554976
3743.000000	98.548878
3742.000000	98.542750
3741.000000	98.536565
3740.000000	98.529104
3739.000000	98.519775
3738.000000	98.510466
3737.000000	98.505744
3736.000000	98.508929
3735.000000	98.515848
3734.000000	98.518103
3733.000000	98.514893
3732.000000	98.512137
3731.000000	98.513237
3730.000000	98.516463
3729.000000	98.518432
3728.000000	98.518466
3727.000000	98.518892
3726.000000	98.521825
3725.000000	98.527041
3724.000000	98.533170
3723.000000	98.538965
3722.000000	98.543718
3721.000000	98.547705
3720.000000	98.551354
3719.000000	98.553892
3718.000000	98.554323
3717.000000	98.552479
3716.000000	98.549118
3715.000000	98.544684
3714.000000	98.538959
3713.000000	98.532158
3712.000000	98.525522
3711.000000	98.521668
3710.000000	98.521676
3709.000000	98.524833
3708.000000	98.529646
3707.000000	98.533283
3706.000000	98.533448
3705.000000	98.530072
3704.000000	98.525065
3703.000000	98.520508
3702.000000	98.516495
3701.000000	98.512204
3700.000000	98.507973
3699.000000	98.505059
3698.000000	98.504317
3697.000000	98.505438
3696.000000	98.506552
3695.000000	98.505506
3694.000000	98.502220
3693.000000	98.499359
3692.000000	98.499281
3691.000000	98.501179
3690.000000	98.501336
3689.000000	98.497052
3688.000000	98.490152
3687.000000	98.485763
3686.000000	98.486162
3685.000000	98.490119
3684.000000	98.494721
3683.000000	98.497372
3682.000000	98.496905
3681.000000	98.493390
3680.000000	98.487365
3679.000000	98.479159
3678.000000	98.469487
3677.000000	98.461799
3676.000000	98.457232
3675.000000	98.450080
3674.000000	98.438100
3673.000000	98.427530
3672.000000	98.423046
3671.000000	98.428078
3670.000000	98.439579
3669.000000	98.447308
3668.000000	98.447219
3667.000000	98.443176
3666.000000	98.438010
3665.000000	98.432894
3664.000000	98.428696
3663.000000	98.426206
3662.000000	98.425440
3661.000000	98.425321
3660.000000	98.424355
3659.000000	98.421167
3658.000000	98.415108
3657.000000	98.406320
3656.000000	98.396176
3655.000000	98.387282
3654.000000	98.381144
3653.000000	98.377195
3652.000000	98.372791
3651.000000	98.363960
3650.000000	98.351331
3649.000000	98.343383
3648.000000	98.341081
3647.000000	98.337139
3646.000000	98.329304
3645.000000	98.320387
3644.000000	98.312734
3643.000000	98.306317
3642.000000	98.299598
3641.000000	98.290614
3640.000000	98.278604
3639.000000	98.264353
3638.000000	98.248941
3637.000000	98.232257
3636.000000	98.212629
3635.000000	98.188842
3634.000000	98.161691
3633.000000	98.132364
3632.000000	98.098548
3631.000000	98.053971
3630.000000	97.995709
3629.000000	97.934508
3628.000000	97.887564
3627.000000	97.858721
3626.000000	97.838549
3625.000000	97.817405
3624.000000	97.791735
3623.000000	97.761032
3622.000000	97.722795
3621.000000	97.671424
3620.000000	97.603032
3619.000000	97.523506
3618.000000	97.446751
3617.000000	97.381484
3616.000000	97.324194
3615.000000	97.265709
3614.000000	97.200010
3613.000000	97.128923
3612.000000	97.059161
3611.000000	96.994977
3610.000000	96.936046
3609.000000	96.881346
3608.000000	96.830779
3607.000000	96.783800
3606.000000	96.738436
3605.000000	96.691325
3604.000000	96.637059
3603.000000	96.567673
3602.000000	96.476003
3601.000000	96.361982
3600.000000	96.232442
3599.000000	96.092506
3598.000000	95.937899
3597.000000	95.756477
3596.000000	95.539173
3595.000000	95.294155
3594.000000	95.049347
3593.000000	94.835988
3592.000000	94.668764
3591.000000	94.541041
3590.000000	94.435978
3589.000000	94.345819
3588.000000	94.289859
3587.000000	94.304065
3586.000000	94.404219
3585.000000	94.577110
3584.000000	94.798554
3583.000000	95.045145
3582.000000	95.298200
3581.000000	95.544440
3580.000000	95.775304
3579.000000	95.986343
3578.000000	96.177135
3577.000000	96.349521
3576.000000	96.504917
3575.000000	96.643358
3574.000000	96.764802
3573.000000	96.870432
3572.000000	96.962608
3571.000000	97.044111
3570.000000	97.117600
3569.000000	97.185133
3568.000000	97.247249
3567.000000	97.302957
3566.000000	97.350186
3565.000000	97.389617
3564.000000	97.425219
3563.000000	97.460703
3562.000000	97.497578
3561.000000	97.535565
3560.000000	97.572876
3559.000000	97.606850
3558.000000	97.635580
3557.000000	97.659043
3556.000000	97.678867
3555.000000	97.697293
3554.000000	97.715898
3553.000000	97.734503
3552.000000	97.751376
3551.000000	97.765321
3550.000000	97.776602
3549.000000	97.785890
3548.000000	97.793133
3547.000000	97.798827
3546.000000	97.804933
3545.000000	97.813246
3544.000000	97.823511
3543.000000	97.834471
3542.000000	97.845152
3541.000000	97.854824
3540.000000	97.862772
3539.000000	97.868508
3538.000000	97.872526
3537.000000	97.875760
3536.000000	97.878619
3535.000000	97.880771
3534.000000	97.881842
3533.000000	97.881802
3532.000000	97.880837
3531.000000	97.879734
3530.000000	97.879565
3529.000000	97.880534
3528.000000	97.881139
3527.000000	97.879645
3526.000000	97.876332
3525.000000	97.873688
3524.000000	97.874133
3523.000000	97.877898
3522.000000	97.883187
3521.000000	97.887956
3520.000000	97.890986
3519.000000	97.891876
3518.000000	97.891267
3517.000000	97.890660
3516.000000	97.891424
3515.000000	97.894028
3514.000000	97.897881
3513.000000	97.901731
3512.000000	97.904252
3511.000000	97.904944
3510.000000	97.904727
3509.000000	97.905265
3508.000000	97.907258
3507.000000	97.909616
3506.000000	97.910186
3505.000000	97.907645
3504.000000	97.903210
3503.000000	97.900231
3502.000000	97.901024
3501.000000	97.904820
3500.000000	97.908974
3499.000000	97.911411
3498.000000	97.912167
3497.000000	97.912819
3496.000000	97.914720
3495.000000	97.917888
3494.000000	97.921479
3493.000000	97.924470
3492.000000	97.925738
3491.000000	97.924262
3490.000000	97.919779
3489.000000	97.913500
3488.000000	97.907745
3487.000000	97.904650
3486.000000	97.904991
3485.000000	97.907598
3484.000000	97.909801
3483.000000	97.909168
3482.000000	97.905623
3481.000000	97.901638
3480.000000	97.899694
3479.000000	97.899991
3478.000000	97.900686
3477.000000	97.899876
3476.000000	97.896881
3475.000000	97.892016
3474.000000	97.885989
3473.000000	97.879595
3472.000000	97.873686
3471.000000	97.868871
3470.000000	97.865164
3469.000000	97.862159
3468.000000	97.859620
3467.000000	97.857597
3466.000000	97.855838
3465.000000	97.853113
3464.000000	97.847636
3463.000000	97.838547
3462.000000	97.827045
3461.000000	97.815743
3460.000000	97.806792
3459.000000	97.800718
3458.000000	97.796624
3457.000000	97.792859
3456.000000	97.787928
3455.000000	97.781365
3454.000000	97.773984
3453.000000	97.767052
3452.000000	97.761051
3451.000000	97.755738
3450.000000	97.750876
3449.000000	97.746329
3448.000000	97.741388
3447.000000	97.734804
3446.000000	97.726031
3445.000000	97.715988
3444.000000	97.706101
3443.000000	97.696826
3442.000000	97.687475
3441.000000	97.677175
3440.000000	97.665855
3439.000000	97.654525
3438.000000	97.644601
3437.000000	97.636669
3436.000000	97.629939
3435.000000	97.622968
3434.000000	97.614842
3433.000000	97.605656
3432.000000	97.596007
3431.000000	97.586589
3430.000000	97.577791
3429.000000	97.569212
3428.000000	97.559707
3427.000000	97.548606
3426.000000	97.536977
3425.000000	97.527026
3424.000000	97.520016
3423.000000	97.515035
3422.000000	97.510012
3421.000000	97.503639
3420.000000	97.496158
3419.000000	97.488500
3418.000000	97.480914
3417.000000	97.472549
3416.000000	97.462282
3415.000000	97.449892
3414.000000	97.436254
3413.000000	97.422316
3412.000000	97.408210
3411.000000	97.393712
3410.000000	97.379143
3409.000000	97.365169
3408.000000	97.351833
3407.000000	97.338437
3406.000000	97.324576
3405.000000	97.310598
3404.000000	97.296781
3403.000000	97.282538
3402.000000	97.266997
3401.000000	97.250183
3400.000000	97.233117
3399.000000	97.216854
3398.000000	97.201606
3397.000000	97.186566
3396.000000	97.170122
3395.000000	97.150577
3394.000000	97.127427
3393.000000	97.102299
3392.000000	97.078231
3391.000000	97.057464
3390.000000	97.039885
3389.000000	97.023422
3388.000000	97.005515
3387.000000	96.984329
3386.000000	96.959278
3385.000000	96.930909
3384.000000	96.900402
3383.000000	96.869011
3382.000000	96.837626
3381.000000	96.806471
3380.000000	96.774982
3379.000000	96.742267
3378.000000	96.707908
3377.000000	96.672224
3376.000000	96.635457
3375.000000	96.597132
3374.000000	96.556583
3373.000000	96.513933
3372.000000	96.470128
3371.000000	96.426037
3370.000000	96.381966
3369.000000	96.337765
3368.000000	96.292900
3367.000000	96.246474
3366.000000	96.197633
3365.000000	96.145973
3364.000000	96.091103
3363.000000	96.032048
3362.000000	95.967952
3361.000000	95.899426
3360.000000	95.828569
3359.000000	95.757198
3358.000000	95.685302
3357.000000	95.611401
3356.000000	95.533732
3355.000000	95.451029
3354.000000	95.362648
3353.000000	95.268548
3352.000000	95.169277
3351.000000	95.065562
3350.000000	94.957745
3349.000000	94.845486
3348.000000	94.727690
3347.000000	94.603157
3346.000000	94.471347
3345.000000	94.332742
3344.000000	94.188204
3343.000000	94.038160
3342.000000	93.882923
3341.000000	93.723518
3340.000000	93.561512
3339.000000	93.397998
3338.000000	93.233087
3337.000000	93.066739
3336.000000	92.899569
3335.000000	92.732802
3334.000000	92.567967
3333.000000	92.406954
3332.000000	92.251953
3331.000000	92.105240
3330.000000	91.969514
3329.000000	91.848385
3328.000000	91.746753
3327.000000	91.669424
3326.000000	91.619856
3325.000000	91.599872
3324.000000	91.609520
3323.000000	91.647322
3322.000000	91.710435
3321.000000	91.795329
3320.000000	91.899567
3319.000000	92.021655
3318.000000	92.160369
3317.000000	92.313190
3316.000000	92.475760
3315.000000	92.643264
3314.000000	92.812291
3313.000000	92.981894
3312.000000	93.152462
3311.000000	93.323512
3310.000000	93.492980
3309.000000	93.658525
3308.000000	93.818934
3307.000000	93.973732
3306.000000	94.121738
3305.000000	94.260716
3304.000000	94.389181
3303.000000	94.507965
3302.000000	94.619960
3301.000000	94.728350
3300.000000	94.834882
3299.000000	94.939550
3298.000000	95.041148
3297.000000	95.137934
3296.000000	95.228214
3295.000000	95.310688
3294.000000	95.384952
3293.000000	95.451750
3292.000000	95.512331
3291.000000	95.567471
3290.000000	95.616763
3289.000000	95.659336
3288.000000	95.694973
3287.000000	95.724333
3286.000000	95.748308
3285.000000	95.766828
3284.000000	95.778419
3283.000000	95.780765
3282.000000	95.772122
3281.000000	95.752867
3280.000000	95.725202
3279.000000	95.690874
3278.000000	95.649043
3277.000000	95.596393
3276.000000	95.529753
3275.000000	95.448088
3274.000000	95.352340
3273.000000	95.244388
3272.000000	95.126269
3271.000000	95.000400
3270.000000	94.869309
3269.000000	94.735087
3268.000000	94.599547
3267.000000	94.464983
3266.000000	94.334897
3265.000000	94.213832
3264.000000	94.106332
3263.000000	94.015722
3262.000000	93.944200
3261.000000	93.893067
3260.000000	93.863072
3259.000000	93.854236
3258.000000	93.865134
3257.000000	93.893419
3256.000000	93.936116
3255.000000	93.990213
3254.000000	94.053445
3253.000000	94.124337
3252.000000	94.201929
3251.000000	94.284533
3250.000000	94.369044
3249.000000	94.451863
3248.000000	94.530532
3247.000000	94.604686
3246.000000	94.675610
3245.000000	94.745251
3244.000000	94.815340
3243.000000	94.886799
3242.000000	94.959411
3241.000000	95.032040
3240.000000	95.103270
3239.000000	95.171669
3238.000000	95.235764
3237.000000	95.294379
3236.000000	95.347693
3235.000000	95.397778
3234.000000	95.447526
3233.000000	95.498976
3232.000000	95.552546
3231.000000	95.607483
3230.000000	95.662410
3229.000000	95.715524
3228.000000	95.765204
3227.000000	95.810962
3226.000000	95.853767
3225.000000	95.895227
3224.000000	95.936319
3223.000000	95.976865
3222.000000	96.015832
3221.000000	96.052250
3220.000000	96.086376
3219.000000	96.120010
3218.000000	96.155243
3217.000000	96.192438
3216.000000	96.229731
3215.000000	96.264824
3214.000000	96.297236
3213.000000	96.328504
3212.000000	96.360216
3211.000000	96.392273
3210.000000	96.423102
3209.000000	96.451507
3208.000000	96.478291
3207.000000	96.505928
3206.000000	96.536278
3205.000000	96.568533
3204.000000	96.599840
3203.000000	96.628113
3202.000000	96.653775
3201.000000	96.678262
3200.000000	96.701750
3199.000000	96.723229
3198.000000	96.742555
3197.000000	96.761081
3196.000000	96.779970
3195.000000	96.798841
3194.000000	96.816688
3193.000000	96.833386
3192.000000	96.849729
3191.000000	96.866365
3190.000000	96.883269
3189.000000	96.900122
3188.000000	96.916743
3187.000000	96.933336
3186.000000	96.950454
3185.000000	96.968454
3184.000000	96.986800
3183.000000	97.004241
3182.000000	97.020012
3181.000000	97.034440
3180.000000	97.048097
3179.000000	97.060830
3178.000000	97.072137
3177.000000	97.082163
3176.000000	97.091722
3175.000000	97.101443
3174.000000	97.111465
3173.000000	97.121858
3172.000000	97.132751
3171.000000	97.144062
3170.000000	97.155595
3169.000000	97.167547
3168.000000	97.180325
3167.000000	97.193649
3166.000000	97.206295
3165.000000	97.217082
3164.000000	97.226063
3163.000000	97.234469
3162.000000	97.243729
3161.000000	97.254608
3160.000000	97.267025
3159.000000	97.280240
3158.000000	97.293174
3157.000000	97.304908
3156.000000	97.315229
3155.000000	97.324836
3154.000000	97.334918
3153.000000	97.346509
3152.000000	97.360005
3151.000000	97.375027
3150.000000	97.390598
3149.000000	97.405661
3148.000000	97.419803
3147.000000	97.433507
3146.000000	97.447533
3145.000000	97.461979
3144.000000	97.476181
3143.000000	97.489532
3142.000000	97.502234
3141.000000	97.515155
3140.000000	97.529132
3139.000000	97.544483
3138.000000	97.560924
3137.000000	97.577789
3136.000000	97.594440
3135.000000	97.610656
3134.000000	97.626591
3133.000000	97.642319
3132.000000	97.657649
3131.000000	97.672590
3130.000000	97.687618
3129.000000	97.703027
3128.000000	97.718209
3127.000000	97.732121
3126.000000	97.744413
3125.000000	97.755695
3124.000000	97.766835
3123.000000	97.778386
3122.000000	97.790556
3121.000000	97.803105
3120.000000	97.815247
3119.000000	97.826233
3118.000000	97.836245
3117.000000	97.846382
3116.000000	97.857608
3115.000000	97.869857
3114.000000	97.882146
3113.000000	97.893166
3112.000000	97.902126
3111.000000	97.909695
3110.000000	97.918090
3109.000000	97.929256
3108.000000	97.942569
