PE IR       SUBTECH     SPECTRUM    ASCII       PEDS        4.00        
   -1
18c6KCl-NGB.ASC
23/08/09
14:24:09.00
23/08/09
14:24:09.00
Administrator
Sample 059 By Administrator Date Wednesday, August 09 2023
400.000000
#HDR
-1
-1
#GR
cm-1
%T
1.0
0.0
4000.000000
-1.000000
3601
8
98.488016
29.183437
#DATA
4000.000000	97.188012
3999.000000	97.182142
3998.000000	97.176913
3997.000000	97.197527
3996.000000	97.203359
3995.000000	97.207172
3994.000000	97.207614
3993.000000	97.205544
3992.000000	97.203070
3991.000000	97.202072
3990.000000	97.203318
3989.000000	97.206550
3988.000000	97.210950
3987.000000	97.215440
3986.000000	97.219201
3985.000000	97.222064
3984.000000	97.224456
3983.000000	97.226915
3982.000000	97.229756
3981.000000	97.233366
3980.000000	97.238095
3979.000000	97.243713
3978.000000	97.249184
3977.000000	97.253066
3976.000000	97.254641
3975.000000	97.254665
3974.000000	97.255088
3973.000000	97.257692
3972.000000	97.262608
3971.000000	97.268359
3970.000000	97.272803
3969.000000	97.274425
3968.000000	97.273216
3967.000000	97.270312
3966.000000	97.267199
3965.000000	97.265271
3964.000000	97.265620
3963.000000	97.268373
3962.000000	97.272501
3961.000000	97.276115
3960.000000	97.277556
3959.000000	97.276973
3958.000000	97.275784
3957.000000	97.275366
3956.000000	97.276588
3955.000000	97.279661
3954.000000	97.283911
3953.000000	97.287478
3952.000000	97.288234
3951.000000	97.285696
3950.000000	97.281527
3949.000000	97.278066
3948.000000	97.277207
3947.000000	97.280187
3946.000000	97.287622
3945.000000	97.298614
3944.000000	97.310133
3943.000000	97.318097
3942.000000	97.320721
3941.000000	97.320243
3940.000000	97.319928
3939.000000	97.321597
3938.000000	97.324627
3937.000000	97.327187
3936.000000	97.328257
3935.000000	97.328052
3934.000000	97.328301
3933.000000	97.330776
3932.000000	97.335990
3931.000000	97.343041
3930.000000	97.350344
3929.000000	97.358346
3928.000000	97.368250
3927.000000	97.379375
3926.000000	97.388785
3925.000000	97.392216
3924.000000	97.387902
3923.000000	97.378800
3922.000000	97.370163
3921.000000	97.365382
3920.000000	97.364514
3919.000000	97.366136
3918.000000	97.369985
3917.000000	97.375852
3916.000000	97.382025
3915.000000	97.387012
3914.000000	97.391884
3913.000000	97.398708
3912.000000	97.407217
3911.000000	97.414603
3910.000000	97.418166
3909.000000	97.417898
3908.000000	97.416000
3907.000000	97.413677
3906.000000	97.408567
3905.000000	97.397145
3904.000000	97.380491
3903.000000	97.367963
3902.000000	97.369314
3901.000000	97.384858
3900.000000	97.405193
3899.000000	97.418936
3898.000000	97.421836
3897.000000	97.417552
3896.000000	97.410893
3895.000000	97.406010
3894.000000	97.405748
3893.000000	97.409600
3892.000000	97.412514
3891.000000	97.409091
3890.000000	97.399536
3889.000000	97.388041
3888.000000	97.379408
3887.000000	97.377172
3886.000000	97.380327
3885.000000	97.385134
3884.000000	97.390705
3883.000000	97.401111
3882.000000	97.418085
3881.000000	97.433436
3880.000000	97.435891
3879.000000	97.426081
3878.000000	97.415635
3877.000000	97.415205
3876.000000	97.425748
3875.000000	97.437036
3874.000000	97.436912
3873.000000	97.424362
3872.000000	97.410034
3871.000000	97.403524
3870.000000	97.402699
3869.000000	97.399600
3868.000000	97.393533
3867.000000	97.390223
3866.000000	97.395292
3865.000000	97.406926
3864.000000	97.416533
3863.000000	97.419016
3862.000000	97.417130
3861.000000	97.415475
3860.000000	97.415750
3859.000000	97.416616
3858.000000	97.415744
3857.000000	97.412371
3856.000000	97.407621
3855.000000	97.404861
3854.000000	97.401003
3853.000000	97.397901
3852.000000	97.401375
3851.000000	97.411141
3850.000000	97.420965
3849.000000	97.428352
3848.000000	97.432228
3847.000000	97.433517
3846.000000	97.433783
3845.000000	97.432894
3844.000000	97.427984
3843.000000	97.418673
3842.000000	97.409607
3841.000000	97.407737
3840.000000	97.416020
3839.000000	97.428772
3838.000000	97.437080
3837.000000	97.437256
3836.000000	97.432419
3835.000000	97.428193
3834.000000	97.428334
3833.000000	97.432835
3832.000000	97.438130
3831.000000	97.440896
3830.000000	97.442364
3829.000000	97.446726
3828.000000	97.454161
3827.000000	97.458365
3826.000000	97.452684
3825.000000	97.437646
3824.000000	97.422849
3823.000000	97.420274
3822.000000	97.430094
3821.000000	97.438114
3820.000000	97.436695
3819.000000	97.433718
3818.000000	97.438060
3817.000000	97.450735
3816.000000	97.463197
3815.000000	97.468800
3814.000000	97.469445
3813.000000	97.469586
3812.000000	97.470048
3811.000000	97.469222
3810.000000	97.466859
3809.000000	97.465125
3808.000000	97.463436
3807.000000	97.457230
3806.000000	97.444403
3805.000000	97.430232
3804.000000	97.424391
3803.000000	97.434119
3802.000000	97.454372
3801.000000	97.469759
3800.000000	97.473653
3799.000000	97.471606
3798.000000	97.470333
3797.000000	97.472123
3796.000000	97.475551
3795.000000	97.479961
3794.000000	97.486275
3793.000000	97.494274
3792.000000	97.501889
3791.000000	97.506289
3790.000000	97.505911
3789.000000	97.502214
3788.000000	97.498926
3787.000000	97.499537
3786.000000	97.504220
3785.000000	97.509272
3784.000000	97.510417
3783.000000	97.507374
3782.000000	97.503644
3781.000000	97.501906
3780.000000	97.500279
3779.000000	97.496273
3778.000000	97.492109
3777.000000	97.491765
3776.000000	97.495196
3775.000000	97.498377
3774.000000	97.497336
3773.000000	97.491070
3772.000000	97.481479
3771.000000	97.471346
3770.000000	97.462827
3769.000000	97.457838
3768.000000	97.458493
3767.000000	97.464397
3766.000000	97.471796
3765.000000	97.476289
3764.000000	97.476016
3763.000000	97.473771
3762.000000	97.474233
3761.000000	97.479701
3760.000000	97.486788
3759.000000	97.489535
3758.000000	97.485483
3757.000000	97.475673
3756.000000	97.461079
3755.000000	97.442956
3754.000000	97.423442
3753.000000	97.405917
3752.000000	97.393285
3751.000000	97.385547
3750.000000	97.382798
3749.000000	97.385043
3748.000000	97.391750
3747.000000	97.403646
3746.000000	97.422134
3745.000000	97.439115
3744.000000	97.443536
3743.000000	97.436982
3742.000000	97.427020
3741.000000	97.417014
3740.000000	97.408584
3739.000000	97.403199
3738.000000	97.404197
3737.000000	97.413689
3736.000000	97.427446
3735.000000	97.437473
3734.000000	97.441629
3733.000000	97.445933
3732.000000	97.453449
3731.000000	97.460195
3730.000000	97.462577
3729.000000	97.461561
3728.000000	97.461171
3727.000000	97.463955
3726.000000	97.468400
3725.000000	97.472155
3724.000000	97.475724
3723.000000	97.480522
3722.000000	97.485955
3721.000000	97.490937
3720.000000	97.495675
3719.000000	97.500450
3718.000000	97.504874
3717.000000	97.506916
3716.000000	97.504201
3715.000000	97.497242
3714.000000	97.490913
3713.000000	97.490983
3712.000000	97.496345
3711.000000	97.501069
3710.000000	97.502776
3709.000000	97.503314
3708.000000	97.505042
3707.000000	97.508066
3706.000000	97.512000
3705.000000	97.517755
3704.000000	97.526360
3703.000000	97.537180
3702.000000	97.546434
3701.000000	97.550450
3700.000000	97.549440
3699.000000	97.546169
3698.000000	97.542941
3697.000000	97.540028
3696.000000	97.535603
3695.000000	97.529029
3694.000000	97.522362
3693.000000	97.518351
3692.000000	97.516005
3691.000000	97.511529
3690.000000	97.503415
3689.000000	97.496312
3688.000000	97.495667
3687.000000	97.501389
3686.000000	97.510017
3685.000000	97.518476
3684.000000	97.525097
3683.000000	97.529660
3682.000000	97.532622
3681.000000	97.532144
3680.000000	97.523656
3679.000000	97.505605
3678.000000	97.483583
3677.000000	97.469495
3676.000000	97.465714
3675.000000	97.461895
3674.000000	97.454171
3673.000000	97.450071
3672.000000	97.456062
3671.000000	97.473199
3670.000000	97.491235
3669.000000	97.498369
3668.000000	97.495957
3667.000000	97.492023
3666.000000	97.491133
3665.000000	97.494369
3664.000000	97.500016
3663.000000	97.504856
3662.000000	97.505433
3661.000000	97.498637
3660.000000	97.483496
3659.000000	97.463276
3658.000000	97.444917
3657.000000	97.433872
3656.000000	97.428700
3655.000000	97.424198
3654.000000	97.417555
3653.000000	97.409156
3652.000000	97.399832
3651.000000	97.388359
3650.000000	97.375833
3649.000000	97.369388
3648.000000	97.371299
3647.000000	97.375793
3646.000000	97.378404
3645.000000	97.379765
3644.000000	97.381622
3643.000000	97.384304
3642.000000	97.386769
3641.000000	97.386709
3640.000000	97.382500
3639.000000	97.373607
3638.000000	97.360844
3637.000000	97.345968
3636.000000	97.330090
3635.000000	97.312876
3634.000000	97.292321
3633.000000	97.266781
3632.000000	97.237388
3631.000000	97.208923
3630.000000	97.185528
3629.000000	97.165484
3628.000000	97.144810
3627.000000	97.125494
3626.000000	97.109573
3625.000000	97.094963
3624.000000	97.079505
3623.000000	97.062691
3622.000000	97.045955
3621.000000	97.029793
3620.000000	97.011028
3619.000000	96.985303
3618.000000	96.954965
3617.000000	96.925814
3616.000000	96.899807
3615.000000	96.874766
3614.000000	96.846999
3613.000000	96.813443
3612.000000	96.775033
3611.000000	96.737571
3610.000000	96.708220
3609.000000	96.689780
3608.000000	96.676042
3607.000000	96.657923
3606.000000	96.632369
3605.000000	96.601122
3604.000000	96.566640
3603.000000	96.529602
3602.000000	96.490312
3601.000000	96.449825
3600.000000	96.408992
3599.000000	96.367235
3598.000000	96.323378
3597.000000	96.274621
3596.000000	96.217294
3595.000000	96.150604
3594.000000	96.078372
3593.000000	96.006960
3592.000000	95.940798
3591.000000	95.881256
3590.000000	95.828360
3589.000000	95.783813
3588.000000	95.751066
3587.000000	95.732753
3586.000000	95.728814
3585.000000	95.738614
3584.000000	95.759947
3583.000000	95.789448
3582.000000	95.823667
3581.000000	95.859083
3580.000000	95.891332
3579.000000	95.917359
3578.000000	95.936538
3577.000000	95.950028
3576.000000	95.958504
3575.000000	95.962487
3574.000000	95.962701
3573.000000	95.959177
3572.000000	95.951425
3571.000000	95.939415
3570.000000	95.924297
3569.000000	95.907766
3568.000000	95.892361
3567.000000	95.879170
3566.000000	95.866206
3565.000000	95.851564
3564.000000	95.836204
3563.000000	95.822370
3562.000000	95.811429
3561.000000	95.802399
3560.000000	95.792161
3559.000000	95.778354
3558.000000	95.761083
3557.000000	95.741452
3556.000000	95.719856
3555.000000	95.696827
3554.000000	95.673833
3553.000000	95.651176
3552.000000	95.626868
3551.000000	95.599573
3550.000000	95.570807
3549.000000	95.542874
3548.000000	95.516548
3547.000000	95.492181
3546.000000	95.470930
3545.000000	95.453283
3544.000000	95.437680
3543.000000	95.422543
3542.000000	95.407270
3541.000000	95.391273
3540.000000	95.373319
3539.000000	95.352403
3538.000000	95.329377
3537.000000	95.305600
3536.000000	95.281940
3535.000000	95.258981
3534.000000	95.237868
3533.000000	95.218985
3532.000000	95.200638
3531.000000	95.180049
3530.000000	95.155382
3529.000000	95.126603
3528.000000	95.095391
3527.000000	95.065112
3526.000000	95.039454
3525.000000	95.019994
3524.000000	95.004917
3523.000000	94.991138
3522.000000	94.977229
3521.000000	94.963465
3520.000000	94.949752
3519.000000	94.934949
3518.000000	94.918446
3517.000000	94.900739
3516.000000	94.882572
3515.000000	94.864200
3514.000000	94.844993
3513.000000	94.823535
3512.000000	94.798891
3511.000000	94.772193
3510.000000	94.746529
3509.000000	94.723958
3508.000000	94.703700
3507.000000	94.683495
3506.000000	94.661901
3505.000000	94.638509
3504.000000	94.613671
3503.000000	94.588534
3502.000000	94.563953
3501.000000	94.539474
3500.000000	94.513707
3499.000000	94.486324
3498.000000	94.458333
3497.000000	94.430338
3496.000000	94.401301
3495.000000	94.370268
3494.000000	94.337873
3493.000000	94.304633
3492.000000	94.269077
3491.000000	94.228964
3490.000000	94.183793
3489.000000	94.135204
3488.000000	94.085517
3487.000000	94.037005
3486.000000	93.991287
3485.000000	93.947211
3484.000000	93.900083
3483.000000	93.845175
3482.000000	93.782938
3481.000000	93.718889
3480.000000	93.658143
3479.000000	93.601463
3478.000000	93.546293
3477.000000	93.489587
3476.000000	93.429026
3475.000000	93.363547
3474.000000	93.293850
3473.000000	93.221741
3472.000000	93.148539
3471.000000	93.074336
3470.000000	92.998489
3469.000000	92.920520
3468.000000	92.840733
3467.000000	92.760496
3466.000000	92.681486
3465.000000	92.603738
3464.000000	92.524787
3463.000000	92.441702
3462.000000	92.354091
3461.000000	92.264293
3460.000000	92.174820
3459.000000	92.086583
3458.000000	91.999481
3457.000000	91.913069
3456.000000	91.826792
3455.000000	91.739988
3454.000000	91.652355
3453.000000	91.564050
3452.000000	91.475072
3451.000000	91.384780
3450.000000	91.291656
3449.000000	91.194421
3448.000000	91.094424
3447.000000	90.996654
3446.000000	90.906151
3445.000000	90.823287
3444.000000	90.744088
3443.000000	90.665229
3442.000000	90.587100
3441.000000	90.511193
3440.000000	90.437049
3439.000000	90.363559
3438.000000	90.292216
3437.000000	90.226835
3436.000000	90.170604
3435.000000	90.124511
3434.000000	90.087900
3433.000000	90.059383
3432.000000	90.037679
3431.000000	90.023282
3430.000000	90.018589
3429.000000	90.025188
3428.000000	90.041658
3427.000000	90.065376
3426.000000	90.095665
3425.000000	90.133826
3424.000000	90.180314
3423.000000	90.233242
3422.000000	90.289898
3421.000000	90.348716
3420.000000	90.410115
3419.000000	90.475770
3418.000000	90.546796
3417.000000	90.622300
3416.000000	90.699475
3415.000000	90.775609
3414.000000	90.849559
3413.000000	90.921386
3412.000000	90.991806
3411.000000	91.062246
3410.000000	91.133918
3409.000000	91.205831
3408.000000	91.274666
3407.000000	91.337652
3406.000000	91.394974
3405.000000	91.448338
3404.000000	91.498542
3403.000000	91.545536
3402.000000	91.589813
3401.000000	91.632212
3400.000000	91.672547
3399.000000	91.709800
3398.000000	91.743299
3397.000000	91.772655
3396.000000	91.797103
3395.000000	91.816211
3394.000000	91.831093
3393.000000	91.843844
3392.000000	91.855514
3391.000000	91.865488
3390.000000	91.872717
3389.000000	91.876745
3388.000000	91.877598
3387.000000	91.875264
3386.000000	91.869406
3385.000000	91.859106
3384.000000	91.843572
3383.000000	91.823750
3382.000000	91.802588
3381.000000	91.782972
3380.000000	91.765711
3379.000000	91.750209
3378.000000	91.736302
3377.000000	91.724316
3376.000000	91.713685
3375.000000	91.702812
3374.000000	91.690453
3373.000000	91.676641
3372.000000	91.662733
3371.000000	91.651325
3370.000000	91.645608
3369.000000	91.647623
3368.000000	91.657270
3367.000000	91.673701
3366.000000	91.697076
3365.000000	91.727842
3364.000000	91.765371
3363.000000	91.808693
3362.000000	91.858510
3361.000000	91.916650
3360.000000	91.983252
3359.000000	92.055740
3358.000000	92.130420
3357.000000	92.204655
3356.000000	92.277868
3355.000000	92.351410
3354.000000	92.427212
3353.000000	92.505479
3352.000000	92.583963
3351.000000	92.660298
3350.000000	92.734260
3349.000000	92.806453
3348.000000	92.875797
3347.000000	92.939784
3346.000000	92.997189
3345.000000	93.048923
3344.000000	93.096060
3343.000000	93.138554
3342.000000	93.176112
3341.000000	93.209267
3340.000000	93.239426
3339.000000	93.268320
3338.000000	93.297379
3337.000000	93.326815
3336.000000	93.355398
3335.000000	93.381727
3334.000000	93.405335
3333.000000	93.426155
3332.000000	93.443823
3331.000000	93.458479
3330.000000	93.471726
3329.000000	93.485807
3328.000000	93.502491
3327.000000	93.523381
3326.000000	93.550278
3325.000000	93.583744
3324.000000	93.622038
3323.000000	93.663000
3322.000000	93.706614
3321.000000	93.754788
3320.000000	93.808915
3319.000000	93.868800
3318.000000	93.933127
3317.000000	93.999575
3316.000000	94.065136
3315.000000	94.128009
3314.000000	94.189234
3313.000000	94.251277
3312.000000	94.315032
3311.000000	94.379171
3310.000000	94.441918
3309.000000	94.502413
3308.000000	94.560594
3307.000000	94.616748
3306.000000	94.670751
3305.000000	94.721077
3304.000000	94.765585
3303.000000	94.804375
3302.000000	94.841067
3301.000000	94.879687
3300.000000	94.920866
3299.000000	94.962315
3298.000000	95.001922
3297.000000	95.038850
3296.000000	95.072427
3295.000000	95.102241
3294.000000	95.129361
3293.000000	95.155627
3292.000000	95.181608
3291.000000	95.206456
3290.000000	95.229560
3289.000000	95.251148
3288.000000	95.271525
3287.000000	95.291131
3286.000000	95.310926
3285.000000	95.331135
3284.000000	95.349786
3283.000000	95.364044
3282.000000	95.373168
3281.000000	95.378956
3280.000000	95.383347
3279.000000	95.386893
3278.000000	95.389263
3277.000000	95.389898
3276.000000	95.387944
3275.000000	95.382607
3274.000000	95.373831
3273.000000	95.361662
3272.000000	95.345642
3271.000000	95.325975
3270.000000	95.304749
3269.000000	95.284582
3268.000000	95.266146
3267.000000	95.248430
3266.000000	95.231152
3265.000000	95.215550
3264.000000	95.202736
3263.000000	95.192963
3262.000000	95.186514
3261.000000	95.183902
3260.000000	95.185244
3259.000000	95.190435
3258.000000	95.200162
3257.000000	95.215035
3256.000000	95.233633
3255.000000	95.253004
3254.000000	95.271602
3253.000000	95.290406
3252.000000	95.310675
3251.000000	95.331985
3250.000000	95.352882
3249.000000	95.372306
3248.000000	95.389695
3247.000000	95.404815
3246.000000	95.418226
3245.000000	95.431172
3244.000000	95.444301
3243.000000	95.456996
3242.000000	95.468032
3241.000000	95.476295
3240.000000	95.480926
3239.000000	95.481797
3238.000000	95.480139
3237.000000	95.477640
3236.000000	95.474661
3235.000000	95.469900
3234.000000	95.462339
3233.000000	95.452749
3232.000000	95.443117
3231.000000	95.435235
3230.000000	95.429875
3229.000000	95.426772
3228.000000	95.425261
3227.000000	95.425474
3226.000000	95.428717
3225.000000	95.436215
3224.000000	95.447779
3223.000000	95.462566
3222.000000	95.480724
3221.000000	95.502789
3220.000000	95.527786
3219.000000	95.553453
3218.000000	95.578830
3217.000000	95.605422
3216.000000	95.635047
3215.000000	95.667616
3214.000000	95.701511
3213.000000	95.735224
3212.000000	95.767995
3211.000000	95.799477
3210.000000	95.829478
3209.000000	95.857857
3208.000000	95.884522
3207.000000	95.909685
3206.000000	95.934008
3205.000000	95.958117
3204.000000	95.982248
3203.000000	96.006832
3202.000000	96.032825
3201.000000	96.060678
3200.000000	96.089395
3199.000000	96.117472
3198.000000	96.144426
3197.000000	96.170426
3196.000000	96.195068
3195.000000	96.217870
3194.000000	96.239751
3193.000000	96.262422
3192.000000	96.286172
3191.000000	96.309497
3190.000000	96.331154
3189.000000	96.351403
3188.000000	96.370847
3187.000000	96.389246
3186.000000	96.406049
3185.000000	96.421376
3184.000000	96.435985
3183.000000	96.450676
3182.000000	96.465778
3181.000000	96.480794
3180.000000	96.494835
3179.000000	96.508151
3178.000000	96.522773
3177.000000	96.540406
3176.000000	96.559932
3175.000000	96.578038
3174.000000	96.592546
3173.000000	96.604131
3172.000000	96.615038
3171.000000	96.626900
3170.000000	96.639774
3169.000000	96.652366
3168.000000	96.663163
3167.000000	96.672282
3166.000000	96.681949
3165.000000	96.694169
3164.000000	96.708158
3163.000000	96.721284
3162.000000	96.732483
3161.000000	96.743399
3160.000000	96.755876
3159.000000	96.769518
3158.000000	96.782143
3157.000000	96.791978
3156.000000	96.799159
3155.000000	96.805660
3154.000000	96.813711
3153.000000	96.823798
3152.000000	96.834482
3151.000000	96.844551
3150.000000	96.854511
3149.000000	96.865177
3148.000000	96.875756
3147.000000	96.884730
3146.000000	96.892057
3145.000000	96.899002
3144.000000	96.906185
3143.000000	96.913145
3142.000000	96.919801
3141.000000	96.926897
3140.000000	96.934940
3139.000000	96.943802
3138.000000	96.953274
3137.000000	96.963104
3136.000000	96.972572
3135.000000	96.981070
3134.000000	96.988858
3133.000000	96.996200
3132.000000	97.002335
3131.000000	97.006930
3130.000000	97.011934
3129.000000	97.020126
3128.000000	97.031708
3127.000000	97.044040
3126.000000	97.054664
3125.000000	97.062882
3124.000000	97.068453
3123.000000	97.070934
3122.000000	97.071125
3121.000000	97.071448
3120.000000	97.074116
3119.000000	97.079786
3118.000000	97.087976
3117.000000	97.097472
3116.000000	97.106205
3115.000000	97.112296
3114.000000	97.115724
3113.000000	97.118008
3112.000000	97.120371
3111.000000	97.123466
3110.000000	97.128340
3109.000000	97.135747
3108.000000	97.144387
3107.000000	97.151748
3106.000000	97.156755
